# wavelength(nm)      flux
   280.00000      8.20000023E-02
   280.50000      9.89999995E-02
   281.00000      0.15000001    
   281.50000      0.21200000    
   282.00000      0.26699999    
   282.50000      0.30300000    
   283.00000      0.32499999    
   283.50000      0.32300001    
   284.00000      0.29899999    
   284.50000      0.25024000    
   285.00000      0.17589000    
   285.50000      0.15500000    
   286.00000      0.24200000    
   286.50000      0.33300000    
   287.00000      0.36199999    
   287.50000      0.33899999    
   288.00000      0.31099999    
   288.50000      0.32499999    
   289.00000      0.39199999    
   289.50000      0.47900000    
   290.00000      0.56300002    
   290.50000      0.60600001    
   291.00000      0.61799997    
   291.50000      0.59799999    
   292.00000      0.56699997    
   292.50000      0.52899998    
   293.00000      0.53799999    
   293.50000      0.54900002    
   294.00000      0.53299999    
   294.50000      0.51999998    
   295.00000      0.52700001    
   295.50000      0.55900002    
   296.00000      0.57300001    
   296.50000      0.52100003    
   297.00000      0.47799999    
   297.50000      0.52899998    
   298.00000      0.52800000    
   298.50000      0.46799999    
   299.00000      0.47200000    
   299.50000      0.50099999    
   300.00000      0.45794001    
   300.50000      0.43300000    
   301.00000      0.46300000    
   301.50000      0.47756001    
   302.00000      0.44900000    
   302.50000      0.50800002    
   303.00000      0.61199999    
   303.50000      0.64600003    
   304.00000      0.62099999    
   304.50000      0.62599999    
   305.00000      0.64200002    
   305.50000      0.61100000    
   306.00000      0.56500000    
   306.50000      0.57499999    
   307.00000      0.60500002    
   307.50000      0.63099998    
   308.00000      0.64499998    
   308.50000      0.64050001    
   309.00000      0.57999998    
   309.50000      0.50000000    
   310.00000      0.53299999    
   310.50000      0.65200001    
   311.00000      0.76200002    
   311.50000      0.74400002    
   312.00000      0.70615000    
   312.50000      0.67600000    
   313.00000      0.69400001    
   313.50000      0.72399998    
   314.00000      0.71700001    
   314.50000      0.67600000    
   315.00000      0.68449998    
   315.50000      0.63200003    
   316.00000      0.58700001    
   316.50000      0.64899999    
   317.00000      0.73900002    
   317.50000      0.80189002    
   318.00000      0.72360998    
   318.50000      0.68000001    
   319.00000      0.70580000    
   319.50000      0.73317999    
   320.00000      0.77499998    
   320.50000      0.82599998    
   321.00000      0.76546001    
   321.50000      0.71899998    
   322.00000      0.73513001    
   322.50000      0.71152002    
   323.00000      0.64899999    
   323.50000      0.68137997    
   324.00000      0.74049997    
   324.50000      0.78799999    
   325.00000      0.82918000    
   325.50000      0.91377002    
   326.00000      0.99835002    
   326.50000       1.0166000    
   327.00000       1.0046999    
   327.50000      0.98679000    
   328.00000      0.95681000    
   328.50000      0.93400002    
   329.00000       1.0046000    
   329.50000       1.0958000    
   330.00000       1.1098000    
   330.50000       1.0429000    
   331.00000      0.99100000    
   331.50000      0.99396002    
   332.00000      0.99277002    
   332.50000      0.98003000    
   333.00000      0.96394002    
   333.50000      0.93699998    
   334.00000      0.95556998    
   334.50000      0.98861998    
   335.00000       1.0096999    
   335.50000      0.97452998    
   336.00000      0.88979000    
   336.50000      0.82900000    
   337.00000      0.81800002    
   337.50000      0.87731999    
   338.00000      0.92528999    
   338.50000      0.95783001    
   339.00000      0.96863002    
   339.50000      0.98900002    
   340.00000       1.0544000    
   340.50000       1.0463001    
   341.00000      0.97100002    
   341.50000      0.95899999    
   342.00000      0.99570000    
   342.50000       1.0276999    
   343.00000       1.0417000    
   343.50000      0.98300999    
   344.00000      0.85416001    
   344.50000      0.81300002    
   345.00000      0.91583002    
   345.50000      0.97021002    
   346.00000      0.94269001    
   346.50000      0.95594001    
   347.00000      0.96954000    
   347.50000      0.93317997    
   348.00000      0.92471999    
   348.50000      0.93721002    
   349.00000      0.89899999    
   349.50000      0.91969001    
   350.00000       1.0122000    
   350.50000       1.0849000    
   351.00000       1.0534000    
   351.50000       1.0129000    
   352.00000      0.98382998    
   352.50000      0.92600000    
   353.00000      0.98012000    
   353.50000       1.0752000    
   354.00000       1.1346000    
   354.50000       1.1440001    
   355.00000       1.1406000    
   355.50000       1.0964000    
   356.00000       1.0250000    
   356.50000      0.95914000    
   357.00000      0.84200001    
   357.50000      0.85014999    
   358.00000      0.78916001    
   358.50000      0.73100001    
   359.00000      0.85804999    
   359.50000       1.0321000    
   360.00000       1.0890000    
   360.50000       1.0265000    
   361.00000      0.94150001    
   361.50000      0.91799998    
   362.00000      0.95800000    
   362.50000       1.0450000    
   363.00000       1.0710000    
   363.50000       1.0380000    
   364.00000       1.0716000    
   364.50000       1.0590000    
   365.00000       1.0970000    
   365.50000       1.2041000    
   366.00000       1.2860000    
   366.50000       1.2843000    
   367.00000       1.2577000    
   367.50000       1.2316999    
   368.00000       1.1569999    
   368.50000       1.1459000    
   369.00000       1.1944000    
   369.50000       1.2795000    
   370.00000       1.2934000    
   370.50000       1.1660000    
   371.00000       1.1811000    
   371.50000       1.2249000    
   372.00000       1.1444000    
   372.50000       1.0876000    
   373.00000       1.0445000    
   373.50000      0.93900001    
   374.00000      0.93441999    
   374.50000      0.92500001    
   375.00000      0.98500001    
   375.50000       1.0874000    
   376.00000       1.1240000    
   376.50000       1.1040000    
   377.00000       1.1813000    
   377.50000       1.3149000    
   378.00000       1.4144000    
   378.50000       1.3765000    
   379.00000       1.2260000    
   379.50000       1.0980000    
   380.00000       1.1520000    
   380.50000       1.2309999    
   381.00000       1.2490000    
   381.50000       1.1224000    
   382.00000      0.95425999    
   382.50000      0.82313001    
   383.00000      0.73602998    
   383.50000      0.71095002    
   384.00000      0.82099998    
   384.50000      0.98619998    
   385.00000       1.0802000    
   385.50000       1.0296000    
   386.00000      0.99112999    
   386.50000       1.0279000    
   387.00000       1.0354000    
   387.50000       1.0186000    
   388.00000       1.0067000    
   388.50000      0.99743003    
   389.00000       1.0810000    
   389.50000       1.1957999    
   390.00000       1.2519000    
   390.50000       1.2601000    
   391.00000       1.3322001    
   391.50000       1.3490000    
   392.00000       1.2400000    
   392.50000       1.0312001    
   393.00000      0.74500000    
   393.50000      0.59119999    
   394.00000      0.76674998    
   394.50000       1.0556999    
   395.00000       1.2450000    
   395.50000       1.3245000    
   396.00000       1.1626000    
   396.50000      0.84329998    
   397.00000      0.65200001    
   397.50000      0.96142000    
   398.00000       1.3010000    
   398.50000       1.5342000    
   399.00000       1.6245000    
   399.50000       1.6717000    
   400.00000       1.6885000    
   401.00000       1.7520000    
   402.00000       1.8140000    
   403.00000       1.7400000    
   404.00000       1.7630000    
   405.00000       1.7150000    
   406.00000       1.6660000    
   407.00000       1.6300000    
   408.00000       1.6990000    
   409.00000       1.8090000    
   410.00000       1.5369999    
   411.00000       1.7150000    
   412.00000       1.8160000    
   413.00000       1.7392000    
   414.00000       1.7144001    
   415.00000       1.7688000    
   416.00000       1.8150001    
   417.00000       1.7660000    
   418.00000       1.6849999    
   419.00000       1.7490000    
   420.00000       1.5990000    
   421.00000       1.8110000    
   422.00000       1.7819999    
   423.00000       1.7210000    
   424.00000       1.7079999    
   425.00000       1.7550000    
   426.00000       1.6990000    
   427.00000       1.6380000    
   428.00000       1.6510000    
   429.00000       1.5230000    
   430.00000       1.2120000    
   431.00000       1.0990000    
   432.00000       1.8220000    
   433.00000       1.6913000    
   434.00000       1.5599999    
   435.00000       1.7090000    
   436.00000       1.8680000    
   437.00000       1.9000000    
   438.00000       1.6630000    
   439.00000       1.6010000    
   440.00000       1.8300000    
   441.00000       1.7990000    
   442.00000       1.9220001    
   443.00000       1.9490000    
   444.00000       1.8941000    
   445.00000       1.9650000    
   446.00000       1.7557000    
   447.00000       1.9900000    
   448.00000       2.0139999    
   449.00000       2.0009999    
   450.00000       2.0690000    
   451.00000       2.1420000    
   452.00000       2.0469999    
   453.00000       1.8864000    
   454.00000       2.0179999    
   455.00000       2.0009999    
   456.00000       2.0630000    
   457.00000       2.0769999    
   458.00000       2.0320001    
   459.00000       2.0120001    
   460.00000       1.9973000    
   461.00000       2.0639000    
   462.00000       2.0780001    
   463.00000       2.0840001    
   464.00000       2.0150001    
   465.00000       1.9840000    
   466.00000       2.0209999    
   467.00000       1.9310000    
   468.00000       2.0120001    
   469.00000       2.0179999    
   470.00000       1.9390000    
   471.00000       1.9690000    
   472.00000       2.0699999    
   473.00000       1.9881999    
   474.00000       2.0120001    
   475.00000       2.0799999    
   476.00000       2.0120001    
   477.00000       2.0250001    
   478.00000       2.0860000    
   479.00000       2.0400000    
   480.00000       2.0680001    
   481.00000       2.0610001    
   482.00000       2.0623000    
   483.00000       2.0309999    
   484.00000       1.9890000    
   485.00000       1.9790000    
   486.00000       1.6010000    
   487.00000       1.7890000    
   488.00000       1.9349999    
   489.00000       1.8224000    
   490.00000       2.0320001    
   491.00000       1.9490000    
   492.00000       1.8559999    
   493.00000       1.9830000    
   494.00000       1.9339000    
   495.00000       2.0510001    
   496.00000       1.9490000    
   497.00000       1.9800000    
   498.00000       1.9240000    
   499.00000       1.9230000    
   500.00000       1.9160000    
   501.00000       1.8580000    
   502.00000       1.8600000    
   503.00000       1.9490000    
   504.00000       1.8329999    
   505.00000       1.9471999    
   506.00000       2.0250001    
   507.00000       1.9354000    
   508.00000       1.8800000    
   509.00000       1.9650000    
   510.00000       1.9100000    
   511.00000       1.9410000    
   512.00000       1.9890000    
   513.00000       1.8660001    
   514.00000       1.8240000    
   515.00000       1.8750000    
   516.00000       1.8910000    
   517.00000       1.5390000    
   518.00000       1.7589999    
   519.00000       1.7040000    
   520.00000       1.8600000    
   521.00000       1.8730000    
   522.00000       1.9150000    
   523.00000       1.8040000    
   524.00000       1.9410000    
   525.00000       1.9280000    
   526.00000       1.8740000    
   527.00000       1.6410000    
   528.00000       1.8800000    
   529.00000       1.9690000    
   530.00000       1.8920000    
   531.00000       1.9950000    
   532.00000       1.9579999    
   533.00000       1.7470000    
   534.00000       1.8690000    
   535.00000       1.8950000    
   536.00000       1.9740000    
   537.00000       1.8240000    
   538.00000       1.9130000    
   539.00000       1.8640000    
   540.00000       1.8000000    
   541.00000       1.7340000    
   542.00000       1.8880000    
   543.00000       1.8510000    
   544.00000       1.9190000    
   545.00000       1.8740000    
   546.00000       1.8609000    
   547.00000       1.8820000    
   548.00000       1.8260000    
   549.00000       1.8800000    
   550.00000       1.8630000    
   551.00000       1.8590000    
   552.00000       1.8960000    
   553.00000       1.8420000    
   554.00000       1.8780000    
   555.00000       1.8890001    
   556.00000       1.8570000    
   557.00000       1.8120000    
   558.00000       1.8530000    
   559.00000       1.7550000    
   560.00000       1.7860000    
   561.00000       1.8900000    
   562.00000       1.8010000    
   563.00000       1.8710001    
   564.00000       1.8360000    
   565.00000       1.8490000    
   566.00000       1.7500000    
   567.00000       1.8680000    
   568.00000       1.8590000    
   569.00000       1.8310000    
   570.00000       1.8279999    
   571.00000       1.7620000    
   572.00000       1.8720000    
   573.00000       1.8810000    
   574.00000       1.8730000    
   575.00000       1.8340000    
   576.00000       1.8180000    
   577.00000       1.8620000    
   578.00000       1.7990000    
   579.00000       1.8160000    
   580.00000       1.8340000    
   581.00000       1.8329999    
   582.00000       1.8520000    
   583.00000       1.8630000    
   584.00000       1.8540000    
   585.00000       1.8360000    
   586.00000       1.7920001    
   587.00000       1.8380001    
   588.00000       1.8210000    
   589.00000       1.6240000    
   590.00000       1.7218000    
   591.00000       1.8090000    
   592.00000       1.7880000    
   593.00000       1.7920001    
   594.00000       1.7890000    
   595.00000       1.7780000    
   596.00000       1.7960000    
   597.00000       1.8060000    
   598.00000       1.7720000    
   599.00000       1.7640001    
   600.00000       1.7700000    
   601.00000       1.7420000    
   602.00000       1.7150000    
   603.00000       1.7490000    
   604.00000       1.7790000    
   605.00000       1.7730000    
   606.00000       1.7580000    
   607.00000       1.7620000    
   608.00000       1.7510000    
   609.00000       1.7340000    
   610.00000       1.7240000    
   611.00000       1.7120000    
   612.00000       1.7359999    
   613.00000       1.7100000    
   614.00000       1.6550000    
   615.00000       1.7120000    
   616.00000       1.6640000    
   617.00000       1.6410000    
   618.00000       1.7020000    
   619.00000       1.7090000    
   620.00000       1.7110000    
   621.00000       1.7240000    
   622.00000       1.6784000    
   623.00000       1.6820000    
   624.00000       1.6670001    
   625.00000       1.6440001    
   626.00000       1.6400000    
   627.00000       1.6930000    
   628.00000       1.6930000    
   629.00000       1.6870000    
   630.00000       1.6650000    
   631.00000       1.6590000    
   632.00000       1.5901000    
   633.00000       1.6740000    
   634.00000       1.6370000    
   635.00000       1.6520000    
   636.00000       1.6093000    
   637.00000       1.6610000    
   638.00000       1.6650000    
   639.00000       1.6530000    
   640.00000       1.6130000    
   641.00000       1.6100000    
   642.00000       1.6090000    
   643.00000       1.6250000    
   644.00000       1.6140000    
   645.00000       1.6270000    
   646.00000       1.5910000    
   647.00000       1.6059999    
   648.00000       1.6020000    
   649.00000       1.5510000    
   650.00000       1.5260000    
   651.00000       1.6130000    
   652.00000       1.5910000    
   653.00000       1.5980000    
   654.00000       1.5750000    
   655.00000       1.5230000    
   656.00000       1.3233000    
   657.00000       1.3839999    
   658.00000       1.5390000    
   659.00000       1.5420001    
   660.00000       1.5580000    
   661.00000       1.5660000    
   662.00000       1.5710000    
   663.00000       1.5630000    
   664.00000       1.5540000    
   665.00000       1.5670000    
   666.00000       1.5549999    
   667.00000       1.5354000    
   668.00000       1.5348001    
   669.00000       1.5580000    
   670.00000       1.5340000    
   671.00000       1.5290000    
   672.00000       1.5060000    
   673.00000       1.5170000    
   674.00000       1.5130000    
   675.00000       1.4990000    
   676.00000       1.5150000    
   677.00000       1.5000000    
   678.00000       1.5070000    
   679.00000       1.4930000    
   680.00000       1.4940000    
   681.00000       1.4870000    
   682.00000       1.4930000    
   683.00000       1.4760000    
   684.00000       1.4660000    
   685.00000       1.4650000    
   686.00000       1.4330000    
   687.00000       1.4720000    
   688.00000       1.4760000    
   689.00000       1.4780000    
   690.00000       1.4790000    
   691.00000       1.4680001    
   692.00000       1.4540000    
   693.00000       1.4579999    
   694.00000       1.4570000    
   695.00000       1.4349999    
   696.00000       1.4420000    
   697.00000       1.4380000    
   698.00000       1.4170001    
   699.00000       1.4340000    
   700.00000       1.4220001    
   701.00000       1.4131000    
   702.00000       1.3987000    
   703.00000       1.4095000    
   704.00000       1.4187000    
   705.00000       1.4330000    
   706.00000       1.4138000    
   707.00000       1.4040000    
   708.00000       1.3990000    
   709.00000       1.3900000    
   710.00000       1.4040000    
   711.00000       1.3970000    
   712.00000       1.3818001    
   713.00000       1.3702000    
   714.00000       1.3819000    
   715.00000       1.3502001    
   716.00000       1.3694000    
   717.00000       1.3650000    
   718.00000       1.3570000    
   719.00000       1.3010000    
   720.00000       1.3487000    
   721.00000       1.3480000    
   722.00000       1.3600000    
   723.00000       1.3510000    
   724.00000       1.3607000    
   725.00000       1.3465000    
   726.00000       1.3429000    
   727.00000       1.3444000    
   728.00000       1.3370000    
   729.00000       1.2796000    
   730.00000       1.3357000    
   731.00000       1.3104000    
   732.00000       1.3333000    
   733.00000       1.3108000    
   734.00000       1.3390000    
   735.00000       1.3271000    
   736.00000       1.3099999    
   737.00000       1.3120000    
   738.00000       1.3000000    
   739.00000       1.2646000    
   740.00000       1.2830000    
   741.00000       1.2707000    
   742.00000       1.2649000    
   743.00000       1.2891999    
   744.00000       1.2955000    
   745.00000       1.2920001    
   746.00000       1.2891999    
   747.00000       1.2890000    
   748.00000       1.2808000    
   749.00000       1.2760000    
   750.00000       1.2740000    
   751.00000       1.2680000    
   752.00000       1.2720000    
   753.00000       1.2650000    
   754.00000       1.2809000    
   755.00000       1.2771000    
   756.00000       1.2610000    
   757.00000       1.2598000    
   758.00000       1.2680000    
   759.00000       1.2500000    
   760.00000       1.2589999    
   761.00000       1.2487000    
   762.00000       1.2460001    
   763.00000       1.2543000    
   764.00000       1.2566000    
